EXPLAIN
TAG	CORPOT
TITLE	LABEL	Open Circuit Potential	Test Identifier
DATE	LABEL	7/2/2025	Date
TIME	LABEL	9:22:19	Time
NOTES	NOTES	1	Notes...
	
PSTAT	PSTAT	IFC1010-38037	Potentiostat
TIMEOUT	QUANT	1.20000E+002	Total Time (s)
SAMPLETIME	QUANT	5.00000E-001	Sample Period (s)
STABILITY	QUANT	0.00000E+000	Stability (mV/s)
AREA	QUANT	1.00000E+000	Sample Area (cm^2)
SEQUENCER	TOGGLE	TRUE	Run as Sequence
PSTATMODEL	IQUANT	64	Pstat Model
PSTATSECTION	LABEL	IFC1010-38037	Pstat Section
PSTATSERIALNO	LABEL	38037	Pstat Serial Number
CTRLMODE	IQUANT	1	Control Mode
ELECTROMETER	IQUANT	0	RE=0 or CS=1
IESTAB	IQUANT	2	I/E Stability
CASPEED	IQUANT	4	Control Amp Speed
CONVENTION	IQUANT	1	Current Convention
ICHRANGE	IQUANT	2	Ich Range
ICHRANGEMODE	TOGGLE	T	Ich Auto Range
ICHOFFSETENABLE	TOGGLE	F	Ich Offset Enable
ICHOFFSET	QUANT	0	Ich Offset (V)
ICHFILTER	IQUANT	4	Ich Filter
VCHRANGE	IQUANT	3	Vch Range
VCHRANGEMODE	TOGGLE	T	Vch Auto Range
VCHOFFSETENABLE	TOGGLE	F	Vch Offset Enable
VCHOFFSET	QUANT	0	Vch Offset (V)
VCHFILTER	IQUANT	4	Vch Filter
IERANGELOWERLIMIT	IQUANT	4	I/E Range Lower Limit
IERANGEMODE	TOGGLE	F	I/E AutoRange
IERANGE	IQUANT	11	I/E Range
ACHSELECT	IQUANT	0	Ach Select
ACHRANGE	IQUANT	2	Ach Range
ACHOFFSETENABLE	TOGGLE	F	Ach Offset Enable
ACHOFFSET	QUANT	0	Ach Offset (V)
ACHFILTER	IQUANT	1	Ach Filter
SENSECABLEID	IQUANT	14	Sense Cable ID
PWRCABLEID	IQUANT	14	Power Cable ID
DCCALDATE	LABEL	3/10/2025	DC Calibration Date
ACCALDATE	LABEL	11/16/2023	AC Calibration Date
FRAMEWORKVERSION	LABEL	7.10.3	Framework Version
INSTRUMENTVERSION	LABEL	4.91	Instrument Version
COMMVERSION	LABEL	3.10	Communications Version
CPUPLDVERSION	LABEL	2.50	CPU PLD Version
CTRLPLDVERSION	LABEL	0.00	CTRL PLD Version
PSTATPLDVERSION	LABEL	0.00	PSTAT PLD Version
CURVE	TABLE	235
	Pt	T	Vf	Vm	Ach	Over	Temp
	#	s	V vs. Ref.	V	V	bits	deg C
	0	0.51	3.03313E-002	3.03313E-002	0.00000E+000	...........	1569.16
	1	1.02	3.03309E-002	3.03105E-002	0.00000E+000	...........	1569.16
	2	1.53	3.03284E-002	3.02884E-002	0.00000E+000	...........	1569.35
	3	2.04	3.03212E-002	3.02675E-002	0.00000E+000	...........	1569.35
	4	2.55	3.03082E-002	3.02497E-002	0.00000E+000	...........	1569.35
	5	3.06	3.02906E-002	3.02268E-002	0.00000E+000	...........	1569.35
	6	3.57	3.02707E-002	3.02045E-002	0.00000E+000	...........	1569.45
	7	4.08	3.02498E-002	3.01820E-002	0.00000E+000	...........	1569.45
	8	4.59	3.02282E-002	3.01594E-002	0.00000E+000	...........	1569.45
	9	5.1	3.02062E-002	3.01406E-002	0.00000E+000	...........	1569.45
	10	5.61	3.01843E-002	3.01211E-002	0.00000E+000	...........	1569.45
	11	6.12	3.01629E-002	3.01023E-002	0.00000E+000	...........	1569.45
	12	6.63	3.01425E-002	3.00814E-002	0.00000E+000	...........	1569.45
	13	7.14	3.01225E-002	3.00578E-002	0.00000E+000	...........	1569.45
	14	7.65	3.01024E-002	3.00349E-002	0.00000E+000	...........	1569.45
	15	8.16	3.00815E-002	3.00164E-002	0.00000E+000	...........	1569.45
	16	8.67	3.00601E-002	3.00013E-002	0.00000E+000	...........	1569.45
	17	9.18	3.00394E-002	2.99876E-002	0.00000E+000	...........	1569.45
	18	9.69	3.00206E-002	2.99781E-002	0.00000E+000	...........	1569.45
	19	10.2	3.00045E-002	2.99700E-002	0.00000E+000	...........	1569.45
	20	10.71	2.99910E-002	2.99609E-002	0.00000E+000	...........	1569.45
	21	11.22	2.99800E-002	2.99561E-002	0.00000E+000	...........	1569.45
	22	11.73	2.99709E-002	2.99517E-002	0.00000E+000	...........	1569.45
	23	12.24	2.99633E-002	2.99438E-002	0.00000E+000	...........	1569.38
	24	12.75	2.99566E-002	2.99304E-002	0.00000E+000	...........	1569.07
	25	13.26	2.99497E-002	2.99175E-002	0.00000E+000	...........	1569.17
	26	13.77	2.99410E-002	2.98989E-002	0.00000E+000	...........	1569.35
	27	14.28	2.99299E-002	2.98875E-002	0.00000E+000	...........	1569.35
	28	14.79	2.99168E-002	2.98758E-002	0.00000E+000	...........	1569.35
	29	15.3	2.99030E-002	2.98660E-002	0.00000E+000	...........	1569.35
	30	15.81	2.98899E-002	2.98595E-002	0.00000E+000	...........	1569.35
	31	16.32	2.98783E-002	2.98530E-002	0.00000E+000	...........	1569.45
	32	16.83	2.98685E-002	2.98441E-002	0.00000E+000	...........	1569.45
	33	17.34	2.98602E-002	2.98363E-002	0.00000E+000	...........	1569.35
	34	17.85	2.98524E-002	2.98266E-002	0.00000E+000	...........	1569.35
	35	18.36	2.98444E-002	2.98146E-002	0.00000E+000	...........	1569.45
	36	18.87	2.98357E-002	2.98004E-002	0.00000E+000	...........	1569.45
	37	19.38	2.98257E-002	2.97856E-002	0.00000E+000	...........	1569.45
	38	19.89	2.98140E-002	2.97719E-002	0.00000E+000	...........	1569.45
	39	20.4	2.98011E-002	2.97607E-002	0.00000E+000	...........	1569.45
	40	20.91	2.97876E-002	2.97496E-002	0.00000E+000	...........	1569.45
	41	21.42	2.97745E-002	2.97414E-002	0.00000E+000	...........	1569.45
	42	21.93	2.97624E-002	2.97273E-002	0.00000E+000	...........	1569.45
	43	22.44	2.97512E-002	2.97161E-002	0.00000E+000	...........	1569.45
	44	22.95	2.97402E-002	2.97116E-002	0.00000E+000	...........	1569.45
	45	23.46	2.97296E-002	2.97016E-002	0.00000E+000	...........	1569.55
	46	23.97	2.97197E-002	2.96905E-002	0.00000E+000	...........	1569.55
	47	24.48	2.97104E-002	2.96789E-002	0.00000E+000	...........	1569.45
	48	24.99	2.97009E-002	2.96639E-002	0.00000E+000	...........	1569.45
	49	25.5	2.96903E-002	2.96527E-002	0.00000E+000	...........	1569.45
	50	26.01	2.96787E-002	2.96472E-002	0.00000E+000	...........	1569.45
	51	26.52	2.96672E-002	2.96423E-002	0.00000E+000	...........	1569.55
	52	27.03	2.96570E-002	2.96368E-002	0.00000E+000	...........	1569.55
	53	27.54	2.96489E-002	2.96286E-002	0.00000E+000	...........	1569.55
	54	28.05	2.96421E-002	2.96158E-002	0.00000E+000	...........	1569.55
	55	28.56	2.96349E-002	2.95949E-002	0.00000E+000	...........	1569.55
	56	29.07	2.96254E-002	2.95779E-002	0.00000E+000	...........	1569.55
	57	29.58	2.96127E-002	2.95644E-002	0.00000E+000	...........	1569.55
	58	30.09	2.95975E-002	2.95525E-002	0.00000E+000	...........	1569.55
	59	30.6	2.95819E-002	2.95420E-002	0.00000E+000	...........	1569.55
	60	31.11	2.95675E-002	2.95355E-002	0.00000E+000	...........	1569.55
	61	31.62	2.95551E-002	2.95295E-002	0.00000E+000	...........	1569.55
	62	32.13	2.95449E-002	2.95239E-002	0.00000E+000	...........	1569.55
	63	32.64	2.95368E-002	2.95165E-002	0.00000E+000	...........	1569.55
	64	33.15	2.95299E-002	2.95083E-002	0.00000E+000	...........	1569.55
	65	33.66	2.95232E-002	2.94983E-002	0.00000E+000	...........	1569.55
	66	34.17	2.95160E-002	2.94882E-002	0.00000E+000	...........	1569.55
	67	34.68	2.95079E-002	2.94814E-002	0.00000E+000	...........	1569.55
	68	35.19	2.94993E-002	2.94790E-002	0.00000E+000	...........	1569.55
	69	35.7	2.94912E-002	2.94777E-002	0.00000E+000	...........	1569.55
	70	36.21	2.94848E-002	2.94739E-002	0.00000E+000	...........	1569.55
	71	36.72	2.94801E-002	2.94655E-002	0.00000E+000	...........	1569.55
	72	37.23	2.94762E-002	2.94619E-002	0.00000E+000	...........	1569.52
	73	37.74	2.94721E-002	2.94594E-002	0.00000E+000	...........	1569.16
	74	38.25	2.94676E-002	2.94580E-002	0.00000E+000	...........	1569.22
	75	38.76	2.94636E-002	2.94531E-002	0.00000E+000	...........	1569.35
	76	39.27	2.94601E-002	2.94512E-002	0.00000E+000	...........	1569.40
	77	39.78	2.94570E-002	2.94442E-002	0.00000E+000	...........	1569.45
	78	40.29	2.94535E-002	2.94372E-002	0.00000E+000	...........	1569.45
	79	40.8	2.94493E-002	2.94296E-002	0.00000E+000	...........	1569.45
	80	41.31	2.94438E-002	2.94215E-002	0.00000E+000	...........	1569.45
	81	41.82	2.94373E-002	2.94129E-002	0.00000E+000	...........	1569.45
	82	42.33	2.94299E-002	2.94038E-002	0.00000E+000	...........	1569.45
	83	42.84	2.94218E-002	2.93936E-002	0.00000E+000	...........	1569.45
	84	43.35	2.94131E-002	2.93784E-002	0.00000E+000	...........	1569.45
	85	43.86	2.94033E-002	2.93637E-002	0.00000E+000	...........	1569.45
	86	44.37	2.93919E-002	2.93485E-002	0.00000E+000	...........	1569.55
	87	44.88	2.93790E-002	2.93392E-002	0.00000E+000	...........	1569.55
	88	45.39	2.93655E-002	2.93280E-002	0.00000E+000	...........	1569.55
	89	45.9	2.93524E-002	2.93192E-002	0.00000E+000	...........	1569.55
	90	46.41	2.93405E-002	2.93134E-002	0.00000E+000	...........	1569.55
	91	46.92	2.93302E-002	2.93088E-002	0.00000E+000	...........	1569.55
	92	47.43	2.93218E-002	2.93100E-002	0.00000E+000	...........	1569.55
	93	47.94	2.93157E-002	2.93098E-002	0.00000E+000	...........	1569.55
	94	48.45	2.93119E-002	2.93091E-002	0.00000E+000	...........	1569.55
	95	48.96	2.93100E-002	2.93070E-002	0.00000E+000	...........	1569.55
	96	49.47	2.93090E-002	2.92996E-002	0.00000E+000	...........	1569.55
	97	49.98	2.93073E-002	2.92867E-002	0.00000E+000	...........	1569.55
	98	50.49	2.93034E-002	2.92688E-002	0.00000E+000	...........	1569.55
	99	51	2.92961E-002	2.92606E-002	0.00000E+000	...........	1569.55
	100	51.51	2.92858E-002	2.92555E-002	0.00000E+000	...........	1569.64
	101	52.02	2.92745E-002	2.92501E-002	0.00000E+000	...........	1569.64
	102	52.53	2.92646E-002	2.92488E-002	0.00000E+000	...........	1569.55
	103	53.04	2.92572E-002	2.92445E-002	0.00000E+000	...........	1569.55
	104	53.55	2.92520E-002	2.92442E-002	0.00000E+000	...........	1569.64
	105	54.06	2.92484E-002	2.92400E-002	0.00000E+000	...........	1569.64
	106	54.57	2.92455E-002	2.92290E-002	0.00000E+000	...........	1569.64
	107	55.08	2.92419E-002	2.92156E-002	0.00000E+000	...........	1569.64
	108	55.59	2.92363E-002	2.92103E-002	0.00000E+000	...........	1569.55
	109	56.1	2.92286E-002	2.92087E-002	0.00000E+000	...........	1569.55
	110	56.61	2.92206E-002	2.92093E-002	0.00000E+000	...........	1569.64
	111	57.12	2.92144E-002	2.92101E-002	0.00000E+000	...........	1569.64
	112	57.63	2.92108E-002	2.92096E-002	0.00000E+000	...........	1569.55
	113	58.14	2.92095E-002	2.92086E-002	0.00000E+000	...........	1569.55
	114	58.65	2.92092E-002	2.92111E-002	0.00000E+000	...........	1569.64
	115	59.16	2.92095E-002	2.92181E-002	0.00000E+000	...........	1569.64
	116	59.67	2.92106E-002	2.92206E-002	0.00000E+000	...........	1569.64
	117	60.18	2.92129E-002	2.92193E-002	0.00000E+000	...........	1569.64
	118	60.69	2.92158E-002	2.92208E-002	0.00000E+000	...........	1569.64
	119	61.2	2.92181E-002	2.92183E-002	0.00000E+000	...........	1569.64
	120	61.71	2.92193E-002	2.92163E-002	0.00000E+000	...........	1569.64
	121	62.22	2.92193E-002	2.92163E-002	0.00000E+000	...........	1569.64
	122	62.73	2.92185E-002	2.92136E-002	0.00000E+000	...........	1569.16
	123	63.24	2.92171E-002	2.92110E-002	0.00000E+000	...........	1569.16
	124	63.75	2.92155E-002	2.92083E-002	0.00000E+000	...........	1569.16
	125	64.26	2.92134E-002	2.92015E-002	0.00000E+000	...........	1569.31
	126	64.77	2.92104E-002	2.91873E-002	0.00000E+000	...........	1569.55
	127	65.28	2.92057E-002	2.91785E-002	0.00000E+000	...........	1569.55
	128	65.79	2.91986E-002	2.91710E-002	0.00000E+000	...........	1569.55
	129	66.3	2.91898E-002	2.91607E-002	0.00000E+000	...........	1569.55
	130	66.81	2.91804E-002	2.91512E-002	0.00000E+000	...........	1569.55
	131	67.32	2.91709E-002	2.91411E-002	0.00000E+000	...........	1569.55
	132	67.83	2.91613E-002	2.91290E-002	0.00000E+000	...........	1569.55
	133	68.34	2.91515E-002	2.91209E-002	0.00000E+000	...........	1569.55
	134	68.85	2.91414E-002	2.91126E-002	0.00000E+000	...........	1569.55
	135	69.36	2.91315E-002	2.91066E-002	0.00000E+000	...........	1569.64
	136	69.87	2.91224E-002	2.91005E-002	0.00000E+000	...........	1569.64
	137	70.38	2.91145E-002	2.90986E-002	0.00000E+000	...........	1569.64
	138	70.89	2.91078E-002	2.90903E-002	0.00000E+000	...........	1569.64
	139	71.4	2.91021E-002	2.90854E-002	0.00000E+000	...........	1569.64
	140	71.91	2.90968E-002	2.90806E-002	0.00000E+000	...........	1569.64
	141	72.42	2.90915E-002	2.90760E-002	0.00000E+000	...........	1569.64
	142	72.93	2.90862E-002	2.90680E-002	0.00000E+000	...........	1569.64
	143	73.44	2.90807E-002	2.90586E-002	0.00000E+000	...........	1569.64
	144	73.95	2.90746E-002	2.90472E-002	0.00000E+000	...........	1569.64
	145	74.46	2.90673E-002	2.90462E-002	0.00000E+000	...........	1569.64
	146	74.97	2.90595E-002	2.90459E-002	0.00000E+000	...........	1569.64
	147	75.48	2.90528E-002	2.90443E-002	0.00000E+000	...........	1569.64
	148	75.99	2.90484E-002	2.90456E-002	0.00000E+000	...........	1569.64
	149	76.5	2.90461E-002	2.90468E-002	0.00000E+000	...........	1569.64
	150	77.01	2.90454E-002	2.90473E-002	0.00000E+000	...........	1569.64
	151	77.52	2.90455E-002	2.90429E-002	0.00000E+000	...........	1569.64
	152	78.03	2.90458E-002	2.90450E-002	0.00000E+000	...........	1569.64
	153	78.54	2.90457E-002	2.90490E-002	0.00000E+000	...........	1569.64
	154	79.05	2.90458E-002	2.90553E-002	0.00000E+000	...........	1569.64
	155	79.56	2.90471E-002	2.90606E-002	0.00000E+000	...........	1569.64
	156	80.07	2.90501E-002	2.90607E-002	0.00000E+000	...........	1569.64
	157	80.58	2.90540E-002	2.90601E-002	0.00000E+000	...........	1569.64
	158	81.09	2.90573E-002	2.90594E-002	0.00000E+000	...........	1569.64
	159	81.6	2.90593E-002	2.90589E-002	0.00000E+000	...........	1569.64
	160	82.11	2.90599E-002	2.90595E-002	0.00000E+000	...........	1569.64
	161	82.62	2.90598E-002	2.90599E-002	0.00000E+000	...........	1569.64
	162	83.13	2.90596E-002	2.90579E-002	0.00000E+000	...........	1569.64
	163	83.64	2.90593E-002	2.90549E-002	0.00000E+000	...........	1569.64
	164	84.15	2.90586E-002	2.90537E-002	0.00000E+000	...........	1569.64
	165	84.66	2.90574E-002	2.90534E-002	0.00000E+000	...........	1569.64
	166	85.17	2.90559E-002	2.90557E-002	0.00000E+000	...........	1569.64
	167	85.68	2.90549E-002	2.90582E-002	0.00000E+000	...........	1569.64
	168	86.19	2.90549E-002	2.90606E-002	0.00000E+000	...........	1569.64
	169	86.7	2.90561E-002	2.90666E-002	0.00000E+000	...........	1569.64
	170	87.21	2.90584E-002	2.90715E-002	0.00000E+000	...........	1569.64
	171	87.72	2.90618E-002	2.90724E-002	0.00000E+000	...........	1569.74
	172	88.23	2.90656E-002	2.90718E-002	0.00000E+000	...........	1569.70
	173	88.74	2.90687E-002	2.90677E-002	0.00000E+000	...........	1569.26
	174	89.25	2.90703E-002	2.90604E-002	0.00000E+000	...........	1569.31
	175	89.76	2.90694E-002	2.90542E-002	0.00000E+000	...........	1569.45
	176	90.27	2.90662E-002	2.90501E-002	0.00000E+000	...........	1569.54
	177	90.78	2.90614E-002	2.90529E-002	0.00000E+000	...........	1569.64
	178	91.29	2.90569E-002	2.90529E-002	0.00000E+000	...........	1569.64
	179	91.8	2.90539E-002	2.90569E-002	0.00000E+000	...........	1569.64
	180	92.31	2.90531E-002	2.90583E-002	0.00000E+000	...........	1569.64
	181	92.82	2.90540E-002	2.90565E-002	0.00000E+000	...........	1569.64
	182	93.33	2.90554E-002	2.90560E-002	0.00000E+000	...........	1569.64
	183	93.84	2.90564E-002	2.90557E-002	0.00000E+000	...........	1569.64
	184	94.35	2.90566E-002	2.90571E-002	0.00000E+000	...........	1569.64
	185	94.86	2.90565E-002	2.90553E-002	0.00000E+000	...........	1569.64
	186	95.37	2.90563E-002	2.90561E-002	0.00000E+000	...........	1569.74
	187	95.88	2.90562E-002	2.90578E-002	0.00000E+000	...........	1569.74
	188	96.39	2.90563E-002	2.90580E-002	0.00000E+000	...........	1569.74
	189	96.9	2.90568E-002	2.90658E-002	0.00000E+000	...........	1569.74
	190	97.41	2.90583E-002	2.90753E-002	0.00000E+000	...........	1569.74
	191	97.92	2.90616E-002	2.90854E-002	0.00000E+000	...........	1569.74
	192	98.43	2.90673E-002	2.90965E-002	0.00000E+000	...........	1569.74
	193	98.94	2.90753E-002	2.91049E-002	0.00000E+000	...........	1569.74
	194	99.45	2.90846E-002	2.91122E-002	0.00000E+000	...........	1569.74
	195	99.96	2.90941E-002	2.91168E-002	0.00000E+000	...........	1569.74
	196	100.47	2.91028E-002	2.91205E-002	0.00000E+000	...........	1569.74
	197	100.98	2.91102E-002	2.91378E-002	0.00000E+000	...........	1569.74
	198	101.49	2.91174E-002	2.91499E-002	0.00000E+000	...........	1569.74
	199	102	2.91259E-002	2.91609E-002	0.00000E+000	...........	1569.74
	200	102.51	2.91362E-002	2.91665E-002	0.00000E+000	...........	1569.74
	201	103.02	2.91471E-002	2.91731E-002	0.00000E+000	...........	1569.74
	202	103.53	2.91570E-002	2.91780E-002	0.00000E+000	...........	1569.74
	203	104.04	2.91653E-002	2.91853E-002	0.00000E+000	...........	1569.74
	204	104.55	2.91722E-002	2.91896E-002	0.00000E+000	...........	1569.74
	205	105.06	2.91783E-002	2.91979E-002	0.00000E+000	...........	1569.74
	206	105.57	2.91844E-002	2.92093E-002	0.00000E+000	...........	1569.74
	207	106.08	2.91912E-002	2.92225E-002	0.00000E+000	...........	1569.74
	208	106.59	2.91996E-002	2.92360E-002	0.00000E+000	...........	1569.74
	209	107.1	2.92099E-002	2.92471E-002	0.00000E+000	...........	1569.74
	210	107.61	2.92216E-002	2.92584E-002	0.00000E+000	...........	1569.74
	211	108.12	2.92337E-002	2.92688E-002	0.00000E+000	...........	1569.74
	212	108.63	2.92456E-002	2.92783E-002	0.00000E+000	...........	1569.74
	213	109.14	2.92569E-002	2.92857E-002	0.00000E+000	...........	1569.74
	214	109.65	2.92672E-002	2.92957E-002	0.00000E+000	...........	1569.74
	215	110.16	2.92769E-002	2.93081E-002	0.00000E+000	...........	1569.74
	216	110.67	2.92863E-002	2.93165E-002	0.00000E+000	...........	1569.74
	217	111.18	2.92960E-002	2.93234E-002	0.00000E+000	...........	1569.74
	218	111.69	2.93054E-002	2.93211E-002	0.00000E+000	...........	1569.74
	219	112.2	2.93132E-002	2.93185E-002	0.00000E+000	...........	1569.74
	220	112.71	2.93181E-002	2.93208E-002	0.00000E+000	...........	1569.74
	221	113.22	2.93203E-002	2.93257E-002	0.00000E+000	...........	1569.74
	222	113.73	2.93213E-002	2.93303E-002	0.00000E+000	...........	1569.74
	223	114.24	2.93230E-002	2.93365E-002	0.00000E+000	...........	1569.67
	224	114.75	2.93261E-002	2.93422E-002	0.00000E+000	...........	1569.35
	225	115.26	2.93306E-002	2.93472E-002	0.00000E+000	...........	1569.46
	226	115.77	2.93356E-002	2.93421E-002	0.00000E+000	...........	1569.64
	227	116.28	2.93399E-002	2.93401E-002	0.00000E+000	...........	1569.64
	228	116.79	2.93424E-002	2.93471E-002	0.00000E+000	...........	1569.64
	229	117.3	2.93434E-002	2.93521E-002	0.00000E+000	...........	1569.64
	230	117.81	2.93445E-002	2.93469E-002	0.00000E+000	...........	1569.64
	231	118.32	2.93462E-002	2.93473E-002	0.00000E+000	...........	1569.64
	232	118.83	2.93476E-002	2.93504E-002	0.00000E+000	...........	1569.64
	233	119.34	2.93483E-002	2.93505E-002	0.00000E+000	...........	1569.64
	234	119.85	2.93489E-002	2.93538E-002	0.00000E+000	...........	1569.64
